#MeasParameter
&HWS=C:\RAYFLEX\PTS-Meteor_with_abs.HWS
&Sample=
&Material=
&Operator=Controlx
&Anode=Cu	&Filter=	&kV=40	&mA=40
&Detector=ScintCount

#CommonParameter
&NumScans=1

#ScanTableParameter1
&kV=40	&mA=40
&ScanAxis=ZI	&ScanMode=Stepscan	
&Start=0.100	&End=2.000	&Step=0.01000	&Time=0.5	&Counts=0
&Speed=0.1	&Area=0.0	&Accu=1
&NoAxis=6
&Axis=O	&Task=GetPosition	&Pos=0.25000	&Ampl=0.000	&Speed=0.0
&Axis=T	&Task=GetPosition	&Pos=0.50000	&Ampl=0.000	&Speed=0.0
&Axis=C	&Task=GetPosition	&Pos=-0.15400	&Ampl=0.000	&Speed=0.0
&Axis=P	&Task=GetPosition	&Pos=0.00000	&Ampl=0.000	&Speed=0.0
&Axis=Z	&Task=GetPosition	&Pos=-13.73800	&Ampl=0.000	&Speed=0.0
&Axis=AC	&Task=GetPosition	&Pos=2.00000	&Ampl=0.000	&Speed=0.0

#Values1
&NoValues=191
   0.10000	     49551	
   0.11000	     53205	
   0.12000	     57930	
   0.13000	     62400	
   0.14000	     68335	
   0.15000	     74496	
   0.16000	     80621	
   0.17000	     88072	
   0.18000	     94935	
   0.19000	    101440	
   0.20000	    109332	
   0.21000	    116117	
   0.22000	    122837	
   0.23000	    130508	
   0.24000	    138399	
   0.25000	    145912	
   0.26000	    152978	
   0.27000	    161045	
   0.28000	    168251	
   0.29000	    176496	
   0.30000	    183373	
   0.31000	    190640	
   0.32000	    198713	
   0.33000	    207347	
   0.34000	    214058	
   0.35000	    222993	
   0.36000	    230237	
   0.37000	    238091	
   0.38000	    246412	
   0.39000	    254732	
   0.40000	    261843	
   0.41000	    268433	
   0.42000	    276074	
   0.43000	    282758	
   0.44000	    290027	
   0.45000	    294998	
   0.46000	    301171	
   0.47000	    307588	
   0.48000	    314194	
   0.49000	    320882	
   0.50000	    328654	
   0.51000	    334587	
   0.52000	    341687	
   0.53000	    350315	
   0.54000	    356702	
   0.55000	    364775	
   0.56000	    370361	
   0.57000	    377743	
   0.58000	    382290	
   0.59000	    390491	
   0.60000	    395829	
   0.61000	    402850	
   0.62000	    409107	
   0.63000	    415345	
   0.64000	    419675	
   0.65000	    425961	
   0.66000	    430229	
   0.67000	    433731	
   0.68000	    438839	
   0.69000	    441210	
   0.70000	    443921	
   0.71000	    446892	
   0.72000	    447807	
   0.73000	    448973	
   0.74000	    444681	
   0.75000	    440515	
   0.76000	    428630	
   0.77000	    413586	
   0.78000	    384303	
   0.79000	    341839	
   0.80000	    291372	
   0.81000	    235801	
   0.82000	    190797	
   0.83000	    161084	
   0.84000	    139754	
   0.85000	    116283	
   0.86000	     88621	
   0.87000	     64436	
   0.88000	     49919	
   0.89000	     48702	
   0.90000	     54825	
   0.91000	     61831	
   0.92000	     62419	
   0.93000	     56621	
   0.94000	     44806	
   0.95000	     32438	
   0.96000	     21980	
   0.97000	     15820	
   0.98000	     14505	
   0.99000	     17062	
   1.00000	     21124	
   1.01000	     25055	
   1.02000	     26953	
   1.03000	     26764	
   1.04000	     23796	
   1.05000	     19396	
   1.06000	     14476	
   1.07000	     10327	
   1.08000	      7390	
   1.09000	      5901	
   1.10000	      6208	
   1.11000	      7382	
   1.12000	      9350	
   1.13000	     10854	
   1.14000	     11890	
   1.15000	     11936	
   1.16000	     11245	
   1.17000	      9750	
   1.18000	      7736	
   1.19000	      6035	
   1.20000	      4515	
   1.21000	      3279	
   1.22000	      2934	
   1.23000	      3074	
   1.24000	      3656	
   1.25000	      4591	
   1.26000	      5395	
   1.27000	      5896	
   1.28000	      6260	
   1.29000	      5961	
   1.30000	      5551	
   1.31000	      4688	
   1.32000	      3831	
   1.33000	      2896	
   1.34000	      2107	
   1.35000	      1734	
   1.36000	      1458	
   1.37000	      1463	
   1.38000	      1750	
   1.39000	      2008	
   1.40000	      2477	
   1.41000	      2728	
   1.42000	      3053	
   1.43000	      3024	
   1.44000	      2728	
   1.45000	      2519	
   1.46000	      2065	
   1.47000	      1598	
   1.48000	      1307	
   1.49000	       922	
   1.50000	       817	
   1.51000	       787	
   1.52000	       759	
   1.53000	       845	
   1.54000	      1043	
   1.55000	      1248	
   1.56000	      1279	
   1.57000	      1245	
   1.58000	      1205	
   1.59000	      1116	
   1.60000	      1073	
   1.61000	       882	
   1.62000	       717	
   1.63000	       574	
   1.64000	       471	
   1.65000	       400	
   1.66000	       368	
   1.67000	       419	
   1.68000	       444	
   1.69000	       538	
   1.70000	       556	
   1.71000	       612	
   1.72000	       653	
   1.73000	       678	
   1.74000	       640	
   1.75000	       556	
   1.76000	       465	
   1.77000	       369	
   1.78000	       299	
   1.79000	       250	
   1.80000	       205	
   1.81000	       191	
   1.82000	       197	
   1.83000	       196	
   1.84000	       263	
   1.85000	       311	
   1.86000	       345	
   1.87000	       352	
   1.88000	       357	
   1.89000	       298	
   1.90000	       288	
   1.91000	       273	
   1.92000	       241	
   1.93000	       209	
   1.94000	       164	
   1.95000	       126	
   1.96000	       130	
   1.97000	        95	
   1.98000	       115	
   1.99000	       131	
   2.00000	       117	
