#MeasParameter
&HWS=C:\RAYFLEX\PTS-Meteor_with_abs.HWS
&Sample=
&Material=
&Operator=Controlx
&Anode=Cu	&Filter=	&kV=40	&mA=40
&Detector=ScintCount

#CommonParameter
&NumScans=1

#ScanTableParameter1
&kV=40	&mA=40
&ScanAxis=ZI	&ScanMode=Stepscan	
&Start=1.300	&End=8.000	&Step=0.02000	&Time=0.5	&Counts=0
&Speed=0.1	&Area=0.0	&Accu=1
&NoAxis=6
&Axis=O	&Task=GetPosition	&Pos=1.00000	&Ampl=0.000	&Speed=0.0
&Axis=T	&Task=GetPosition	&Pos=2.00000	&Ampl=0.000	&Speed=0.0
&Axis=C	&Task=GetPosition	&Pos=-0.15400	&Ampl=0.000	&Speed=0.0
&Axis=P	&Task=GetPosition	&Pos=0.00000	&Ampl=0.000	&Speed=0.0
&Axis=Z	&Task=GetPosition	&Pos=-13.73800	&Ampl=0.000	&Speed=0.0
&Axis=AC	&Task=GetPosition	&Pos=0.00000	&Ampl=0.000	&Speed=0.0

#Values1
&NoValues=336
   1.30000	    363509	
   1.32000	    258234	
   1.34000	    146757	
   1.36000	     97037	
   1.38000	    117658	
   1.40000	    169527	
   1.42000	    203497	
   1.44000	    193560	
   1.46000	    146645	
   1.48000	     89700	
   1.50000	     55428	
   1.52000	     51885	
   1.54000	     68590	
   1.56000	     86279	
   1.58000	     88086	
   1.60000	     72954	
   1.62000	     49786	
   1.64000	     30797	
   1.66000	     25404	
   1.68000	     30994	
   1.70000	     40649	
   1.72000	     45034	
   1.74000	     41585	
   1.76000	     30987	
   1.78000	     19710	
   1.80000	     13514	
   1.82000	     13458	
   1.84000	     17894	
   1.86000	     22783	
   1.88000	     24744	
   1.90000	     22351	
   1.92000	     17141	
   1.94000	     11627	
   1.96000	      8144	
   1.98000	      7481	
   2.00000	      8858	
   2.02000	     10957	
   2.04000	     12278	
   2.06000	     11389	
   2.08000	      9769	
   2.10000	      7340	
   2.12000	      5321	
   2.14000	      4527	
   2.16000	      4784	
   2.18000	      5630	
   2.20000	      6322	
   2.22000	      6695	
   2.24000	      6116	
   2.26000	      5220	
   2.28000	      4054	
   2.30000	      3486	
   2.32000	      3189	
   2.34000	      3442	
   2.36000	      3992	
   2.38000	      4481	
   2.40000	      4634	
   2.42000	      4160	
   2.44000	      3694	
   2.46000	      2842	
   2.48000	      2448	
   2.50000	      2361	
   2.52000	      2667	
   2.54000	      2990	
   2.56000	      3228	
   2.58000	      3108	
   2.60000	      2755	
   2.62000	      2271	
   2.64000	      1917	
   2.66000	      1616	
   2.68000	      1585	
   2.70000	      1862	
   2.72000	      2048	
   2.74000	      2008	
   2.76000	      1885	
   2.78000	      1613	
   2.80000	      1356	
   2.82000	      1128	
   2.84000	      1149	
   2.86000	      1186	
   2.88000	      1371	
   2.90000	      1381	
   2.92000	      1380	
   2.94000	      1281	
   2.96000	      1004	
   2.98000	       913	
   3.00000	       943	
   3.02000	       883	
   3.04000	      1005	
   3.06000	      1087	
   3.08000	      1055	
   3.10000	       972	
   3.12000	       886	
   3.14000	       745	
   3.16000	       717	
   3.18000	       718	
   3.20000	       723	
   3.22000	       755	
   3.24000	       750	
   3.26000	       720	
   3.28000	       678	
   3.30000	       623	
   3.32000	       580	
   3.34000	       557	
   3.36000	       538	
   3.38000	       530	
   3.40000	       521	
   3.42000	       488	
   3.44000	       518	
   3.46000	       459	
   3.48000	       432	
   3.50000	       424	
   3.52000	       393	
   3.54000	       382	
   3.56000	       392	
   3.58000	       352	
   3.60000	       384	
   3.62000	       365	
   3.64000	       320	
   3.66000	       318	
   3.68000	       317	
   3.70000	       320	
   3.72000	       279	
   3.74000	       311	
   3.76000	       305	
   3.78000	       316	
   3.80000	       306	
   3.82000	       268	
   3.84000	       257	
   3.86000	       255	
   3.88000	       268	
   3.90000	       248	
   3.92000	       236	
   3.94000	       264	
   3.96000	       240	
   3.98000	       246	
   4.00000	       192	
   4.02000	       203	
   4.04000	       198	
   4.06000	       209	
   4.08000	       176	
   4.10000	       181	
   4.12000	       170	
   4.14000	       192	
   4.16000	       175	
   4.18000	       172	
   4.20000	       146	
   4.22000	       166	
   4.24000	       145	
   4.26000	       172	
   4.28000	       165	
   4.30000	       185	
   4.32000	       150	
   4.34000	       136	
   4.36000	       134	
   4.38000	       152	
   4.40000	       140	
   4.42000	       168	
   4.44000	       150	
   4.46000	       127	
   4.48000	       119	
   4.50000	       119	
   4.52000	       119	
   4.54000	       117	
   4.56000	       103	
   4.58000	       128	
   4.60000	       115	
   4.62000	       114	
   4.64000	       109	
   4.66000	       107	
   4.68000	       100	
   4.70000	        98	
   4.72000	        91	
   4.74000	        85	
   4.76000	       102	
   4.78000	        99	
   4.80000	        90	
   4.82000	        92	
   4.84000	        94	
   4.86000	        84	
   4.88000	        98	
   4.90000	        95	
   4.92000	        83	
   4.94000	        92	
   4.96000	        86	
   4.98000	        83	
   5.00000	        76	
   5.02000	        64	
   5.04000	        60	
   5.06000	        74	
   5.08000	        71	
   5.10000	        66	
   5.12000	        73	
   5.14000	        63	
   5.16000	        68	
   5.18000	        63	
   5.20000	        66	
   5.22000	        63	
   5.24000	        73	
   5.26000	        52	
   5.28000	        65	
   5.30000	        48	
   5.32000	        57	
   5.34000	        52	
   5.36000	        61	
   5.38000	        53	
   5.40000	        48	
   5.42000	        54	
   5.44000	        49	
   5.46000	        45	
   5.48000	        52	
   5.50000	        37	
   5.52000	        39	
   5.54000	        41	
   5.56000	        48	
   5.58000	        44	
   5.60000	        33	
   5.62000	        40	
   5.64000	        52	
   5.66000	        30	
   5.68000	        44	
   5.70000	        34	
   5.72000	        32	
   5.74000	        35	
   5.76000	        47	
   5.78000	        43	
   5.80000	        33	
   5.82000	        30	
   5.84000	        37	
   5.86000	        39	
   5.88000	        35	
   5.90000	        36	
   5.92000	        34	
   5.94000	        36	
   5.96000	        40	
   5.98000	        30	
   6.00000	        36	
   6.02000	        30	
   6.04000	        42	
   6.06000	        24	
   6.08000	        36	
   6.10000	        34	
   6.12000	        26	
   6.14000	        29	
   6.16000	        41	
   6.18000	        30	
   6.20000	        27	
   6.22000	        36	
   6.24000	        28	
   6.26000	        36	
   6.28000	        39	
   6.30000	        27	
   6.32000	        30	
   6.34000	        27	
   6.36000	        16	
   6.38000	        18	
   6.40000	        22	
   6.42000	        20	
   6.44000	         0	
   6.46000	         0	
   6.48000	         0	
   6.50000	         0	
   6.52000	         0	
   6.54000	         0	
   6.56000	         0	
   6.58000	         0	
   6.60000	         0	
   6.62000	         0	
   6.64000	         0	
   6.66000	         0	
   6.68000	         0	
   6.70000	         0	
   6.72000	         0	
   6.74000	         0	
   6.76000	         0	
   6.78000	         0	
   6.80000	         0	
   6.82000	         0	
   6.84000	         0	
   6.86000	         0	
   6.88000	         0	
   6.90000	         0	
   6.92000	         0	
   6.94000	         0	
   6.96000	         0	
   6.98000	         0	
   7.00000	         0	
   7.02000	         0	
   7.04000	         0	
   7.06000	         0	
   7.08000	         0	
   7.10000	         0	
   7.12000	         0	
   7.14000	         0	
   7.16000	         0	
   7.18000	         0	
   7.20000	         0	
   7.22000	         0	
   7.24000	         0	
   7.26000	         0	
   7.28000	         0	
   7.30000	         0	
   7.32000	         0	
   7.34000	         0	
   7.36000	         0	
   7.38000	         0	
   7.40000	         0	
   7.42000	         0	
   7.44000	         0	
   7.46000	         0	
   7.48000	         0	
   7.50000	         0	
   7.52000	         0	
   7.54000	         0	
   7.56000	         0	
   7.58000	         0	
   7.60000	         0	
   7.62000	         0	
   7.64000	         0	
   7.66000	         0	
   7.68000	         0	
   7.70000	         0	
   7.72000	         0	
   7.74000	         0	
   7.76000	         0	
   7.78000	         0	
   7.80000	         0	
   7.82000	         0	
   7.84000	         0	
   7.86000	         0	
   7.88000	         0	
   7.90000	         0	
   7.92000	         0	
   7.94000	         0	
   7.96000	         0	
   7.98000	         0	
   8.00000	         0	
